Units:(mV)
,CH1
Status:,Stop
Frequency:,?
Period:,?
SP:,20000.000 uS
PK-PK:,552.000 mV ?

1,0.000,-4.00
2,20000.000,0.00
3,40000.000,4.00
4,60000.000,0.00
5,80000.000,-4.00
6,100000.000,-4.00
7,120000.000,-4.00
8,140000.000,-4.00
9,160000.000,0.00
10,180000.000,0.00
11,200000.000,0.00
12,220000.000,-4.00
13,240000.000,-4.00
14,260000.000,0.00
15,280000.000,-4.00
16,300000.000,0.00
17,320000.000,0.00
18,340000.000,-4.00
19,360000.000,0.00
20,380000.000,0.00
21,400000.000,-92.00
22,420000.000,0.00
23,440000.000,12.00
24,460000.000,16.00
25,480000.000,8.00
26,500000.000,8.00
27,520000.000,8.00
28,540000.000,8.00
29,560000.000,8.00
30,580000.000,4.00
31,600000.000,8.00
32,620000.000,4.00
33,640000.000,8.00
34,660000.000,4.00
35,680000.000,4.00
36,700000.000,4.00
37,720000.000,4.00
38,740000.000,0.00
39,760000.000,4.00
40,780000.000,0.00
41,800000.000,4.00
42,820000.000,8.00
43,840000.000,0.00
44,860000.000,0.00
45,880000.000,0.00
46,900000.000,0.00
47,920000.000,0.00
48,940000.000,0.00
49,960000.000,0.00
50,980000.000,0.00
51,1000000.000,0.00
52,1020000.000,0.00
53,1040000.000,0.00
54,1060000.000,0.00
55,1080000.000,4.00
56,1100000.000,0.00
57,1120000.000,0.00
58,1140000.000,0.00
59,1160000.000,-4.00
60,1180000.000,0.00
61,1200000.000,0.00
62,1220000.000,0.00
63,1240000.000,0.00
64,1260000.000,-4.00
65,1280000.000,-4.00
66,1300000.000,0.00
67,1320000.000,0.00
68,1340000.000,4.00
69,1360000.000,4.00
70,1380000.000,0.00
71,1400000.000,0.00
72,1420000.000,340.00
73,1440000.000,0.00
74,1460000.000,-12.00
75,1480000.000,-8.00
76,1500000.000,-12.00
77,1520000.000,-16.00
78,1540000.000,-12.00
79,1560000.000,-8.00
80,1580000.000,-8.00
81,1600000.000,-8.00
82,1620000.000,-8.00
83,1640000.000,-12.00
84,1660000.000,-4.00
85,1680000.000,-4.00
86,1700000.000,-4.00
87,1720000.000,-8.00
88,1740000.000,-8.00
89,1760000.000,-4.00
90,1780000.000,-4.00
91,1800000.000,-4.00
92,1820000.000,-4.00
93,1840000.000,0.00
94,1860000.000,-8.00
95,1880000.000,-4.00
96,1900000.000,-4.00
97,1920000.000,0.00
98,1940000.000,-4.00
99,1960000.000,0.00
100,1980000.000,-4.00
101,2000000.000,-4.00
102,2020000.000,-4.00
103,2040000.000,0.00
104,2060000.000,-4.00
105,2080000.000,0.00
106,2100000.000,0.00
107,2120000.000,0.00
108,2140000.000,-4.00
109,2160000.000,0.00
110,2180000.000,0.00
111,2200000.000,0.00
112,2220000.000,-4.00
113,2240000.000,0.00
114,2260000.000,-4.00
115,2280000.000,0.00
116,2300000.000,0.00
117,2320000.000,4.00
118,2340000.000,-4.00
119,2360000.000,-4.00
120,2380000.000,-4.00
121,2400000.000,0.00
122,2420000.000,0.00
123,2440000.000,0.00
124,2460000.000,-40.00
125,2480000.000,8.00
126,2500000.000,12.00
127,2520000.000,8.00
128,2540000.000,8.00
129,2560000.000,8.00
130,2580000.000,8.00
131,2600000.000,4.00
132,2620000.000,8.00
133,2640000.000,8.00
134,2660000.000,4.00
135,2680000.000,4.00
136,2700000.000,4.00
137,2720000.000,0.00
138,2740000.000,8.00
139,2760000.000,4.00
140,2780000.000,4.00
141,2800000.000,0.00
142,2820000.000,-4.00
143,2840000.000,4.00
144,2860000.000,-4.00
145,2880000.000,4.00
146,2900000.000,4.00
147,2920000.000,0.00
148,2940000.000,-4.00
149,2960000.000,0.00
150,2980000.000,0.00
151,3000000.000,0.00
152,3020000.000,0.00
153,3040000.000,0.00
154,3060000.000,0.00
155,3080000.000,-4.00
156,3100000.000,12.00
157,3120000.000,4.00
158,3140000.000,0.00
159,3160000.000,4.00
160,3180000.000,-4.00
161,3200000.000,0.00
162,3220000.000,0.00
163,3240000.000,0.00
164,3260000.000,0.00
165,3280000.000,0.00
166,3300000.000,0.00
167,3320000.000,0.00
168,3340000.000,0.00
169,3360000.000,0.00
170,3380000.000,-4.00
171,3400000.000,0.00
172,3420000.000,0.00
173,3440000.000,0.00
174,3460000.000,0.00
175,3480000.000,184.00
176,3500000.000,-4.00
177,3520000.000,-12.00
178,3540000.000,-12.00
179,3560000.000,-16.00
180,3580000.000,-8.00
181,3600000.000,-12.00
182,3620000.000,-16.00
183,3640000.000,-4.00
184,3660000.000,-8.00
185,3680000.000,-8.00
186,3700000.000,-12.00
187,3720000.000,-8.00
188,3740000.000,-8.00
189,3760000.000,-8.00
190,3780000.000,-4.00
191,3800000.000,-4.00
192,3820000.000,-4.00
193,3840000.000,-4.00
194,3860000.000,-4.00
195,3880000.000,-8.00
196,3900000.000,-4.00
197,3920000.000,-4.00
198,3940000.000,-8.00
199,3960000.000,0.00
200,3980000.000,-4.00
201,4000000.000,-4.00
202,4020000.000,-4.00
203,4040000.000,-4.00
204,4060000.000,0.00
205,4080000.000,-4.00
206,4100000.000,-4.00
207,4120000.000,0.00
208,4140000.000,-4.00
209,4160000.000,0.00
210,4180000.000,-4.00
211,4200000.000,-4.00
212,4220000.000,-4.00
213,4240000.000,0.00
214,4260000.000,-4.00
215,4280000.000,-4.00
216,4300000.000,0.00
217,4320000.000,-4.00
218,4340000.000,0.00
219,4360000.000,-4.00
220,4380000.000,0.00
221,4400000.000,-4.00
222,4420000.000,-4.00
223,4440000.000,0.00
224,4460000.000,-8.00
225,4480000.000,-4.00
226,4500000.000,-8.00
227,4520000.000,-24.00
228,4540000.000,4.00
229,4560000.000,8.00
230,4580000.000,12.00
231,4600000.000,8.00
232,4620000.000,8.00
233,4640000.000,8.00
234,4660000.000,4.00
235,4680000.000,12.00
236,4700000.000,4.00
237,4720000.000,4.00
238,4740000.000,4.00
239,4760000.000,4.00
240,4780000.000,4.00
241,4800000.000,4.00
242,4820000.000,4.00
243,4840000.000,0.00
244,4860000.000,0.00
245,4880000.000,0.00
246,4900000.000,0.00
247,4920000.000,0.00
248,4940000.000,0.00
249,4960000.000,0.00
250,4980000.000,-4.00
251,5000000.000,0.00
252,5020000.000,0.00
253,5040000.000,0.00
254,5060000.000,4.00
255,5080000.000,-4.00
256,5100000.000,-4.00
257,5120000.000,0.00
258,5140000.000,0.00
259,5160000.000,0.00
260,5180000.000,-4.00
261,5200000.000,0.00
262,5220000.000,0.00
263,5240000.000,-4.00
264,5260000.000,0.00
265,5280000.000,0.00
266,5300000.000,-4.00
267,5320000.000,4.00
268,5340000.000,-4.00
269,5360000.000,0.00
270,5380000.000,-4.00
271,5400000.000,0.00
272,5420000.000,0.00
273,5440000.000,-8.00
274,5460000.000,-4.00
275,5480000.000,0.00
276,5500000.000,4.00
277,5520000.000,-4.00
278,5540000.000,104.00
279,5560000.000,-4.00
280,5580000.000,-12.00
281,5600000.000,-12.00
282,5620000.000,-16.00
283,5640000.000,-16.00
284,5660000.000,-12.00
285,5680000.000,-12.00
286,5700000.000,-16.00
287,5720000.000,-4.00
288,5740000.000,-12.00
289,5760000.000,-8.00
290,5780000.000,-4.00
291,5800000.000,-4.00
292,5820000.000,-8.00
293,5840000.000,-4.00
294,5860000.000,-4.00
295,5880000.000,-8.00
296,5900000.000,-4.00
297,5920000.000,-4.00
298,5940000.000,-4.00
299,5960000.000,-4.00
300,5980000.000,-4.00
301,6000000.000,-8.00
302,6020000.000,-8.00
303,6040000.000,-4.00
304,6060000.000,-4.00
305,6080000.000,-4.00
306,6100000.000,20.00
307,6120000.000,-4.00
308,6140000.000,-4.00
309,6160000.000,-4.00
310,6180000.000,0.00
311,6200000.000,-4.00
312,6220000.000,-4.00
313,6240000.000,-4.00
314,6260000.000,0.00
315,6280000.000,0.00
316,6300000.000,0.00
317,6320000.000,0.00
318,6340000.000,4.00
319,6360000.000,0.00
320,6380000.000,0.00
321,6400000.000,0.00
322,6420000.000,0.00
323,6440000.000,-8.00
324,6460000.000,-4.00
325,6480000.000,0.00
326,6500000.000,-4.00
327,6520000.000,-4.00
328,6540000.000,0.00
329,6560000.000,-212.00
330,6580000.000,-12.00
331,6600000.000,8.00
332,6620000.000,12.00
333,6640000.000,12.00
334,6660000.000,8.00
335,6680000.000,8.00
336,6700000.000,12.00
337,6720000.000,4.00
338,6740000.000,12.00
339,6760000.000,8.00
340,6780000.000,8.00
341,6800000.000,4.00
342,6820000.000,4.00
343,6840000.000,4.00
344,6860000.000,4.00
345,6880000.000,4.00
346,6900000.000,0.00
347,6920000.000,4.00
348,6940000.000,4.00
349,6960000.000,0.00
350,6980000.000,0.00
351,7000000.000,0.00
352,7020000.000,0.00
353,7040000.000,4.00
354,7060000.000,0.00
355,7080000.000,4.00
356,7100000.000,0.00
357,7120000.000,0.00
358,7140000.000,4.00
359,7160000.000,0.00
360,7180000.000,4.00
361,7200000.000,-4.00
362,7220000.000,-4.00
363,7240000.000,0.00
364,7260000.000,0.00
365,7280000.000,0.00
366,7300000.000,-4.00
367,7320000.000,-4.00
368,7340000.000,0.00
369,7360000.000,0.00
370,7380000.000,-4.00
371,7400000.000,-4.00
372,7420000.000,0.00
373,7440000.000,0.00
374,7460000.000,-4.00
375,7480000.000,-4.00
376,7500000.000,-4.00
377,7520000.000,0.00
378,7540000.000,-4.00
379,7560000.000,-4.00
380,7580000.000,-4.00
381,7600000.000,52.00
382,7620000.000,-8.00
383,7640000.000,-16.00
384,7660000.000,-16.00
385,7680000.000,-16.00
386,7700000.000,-12.00
387,7720000.000,-16.00
388,7740000.000,-12.00
389,7760000.000,-8.00
390,7780000.000,-8.00
391,7800000.000,-8.00
392,7820000.000,-8.00
393,7840000.000,-8.00
394,7860000.000,-4.00
395,7880000.000,-8.00
396,7900000.000,-4.00
397,7920000.000,-8.00
398,7940000.000,-8.00
399,7960000.000,-4.00
400,7980000.000,-4.00
401,8000000.000,-8.00
402,8020000.000,-4.00
403,8040000.000,0.00
404,8060000.000,-4.00
405,8080000.000,-4.00
406,8100000.000,-4.00
407,8120000.000,0.00
408,8140000.000,-4.00
409,8160000.000,-4.00
410,8180000.000,-4.00
411,8200000.000,-4.00
412,8220000.000,0.00
413,8240000.000,0.00
414,8260000.000,-4.00
415,8280000.000,-4.00
416,8300000.000,-4.00
417,8320000.000,-4.00
418,8340000.000,0.00
419,8360000.000,-4.00
420,8380000.000,-4.00
421,8400000.000,0.00
422,8420000.000,-4.00
423,8440000.000,-4.00
424,8460000.000,-4.00
425,8480000.000,0.00
426,8500000.000,0.00
427,8520000.000,0.00
428,8540000.000,-4.00
429,8560000.000,0.00
430,8580000.000,-4.00
431,8600000.000,0.00
432,8620000.000,-212.00
433,8640000.000,-4.00
434,8660000.000,12.00
435,8680000.000,12.00
436,8700000.000,12.00
437,8720000.000,8.00
438,8740000.000,8.00
439,8760000.000,8.00
440,8780000.000,4.00
441,8800000.000,8.00
442,8820000.000,4.00
443,8840000.000,0.00
444,8860000.000,0.00
445,8880000.000,4.00
446,8900000.000,8.00
447,8920000.000,0.00
448,8940000.000,4.00
449,8960000.000,0.00
450,8980000.000,0.00
451,9000000.000,4.00
452,9020000.000,0.00
453,9040000.000,-4.00
454,9060000.000,0.00
455,9080000.000,0.00
456,9100000.000,0.00
457,9120000.000,0.00
458,9140000.000,0.00
459,9160000.000,-4.00
460,9180000.000,4.00
461,9200000.000,0.00
462,9220000.000,0.00
463,9240000.000,-4.00
464,9260000.000,-4.00
465,9280000.000,4.00
466,9300000.000,0.00
467,9320000.000,-4.00
468,9340000.000,0.00
469,9360000.000,0.00
470,9380000.000,-4.00
471,9400000.000,0.00
472,9420000.000,0.00
473,9440000.000,-4.00
474,9460000.000,-4.00
475,9480000.000,0.00
476,9500000.000,0.00
477,9520000.000,-4.00
478,9540000.000,0.00
479,9560000.000,-4.00
480,9580000.000,0.00
481,9600000.000,-4.00
482,9620000.000,0.00
483,9640000.000,-4.00
484,9660000.000,20.00
485,9680000.000,-8.00
486,9700000.000,-16.00
487,9720000.000,-12.00
488,9740000.000,-12.00
489,9760000.000,-16.00
490,9780000.000,-12.00
491,9800000.000,-12.00
492,9820000.000,-12.00
493,9840000.000,-8.00
494,9860000.000,-12.00
495,9880000.000,-4.00
496,9900000.000,-4.00
497,9920000.000,-8.00
498,9940000.000,-8.00
499,9960000.000,-8.00
500,9980000.000,-4.00
501,10000000.000,-4.00
502,10020000.000,-4.00
503,10040000.000,-4.00
504,10060000.000,-4.00
505,10080000.000,-8.00
506,10100000.000,-4.00
507,10120000.000,0.00
508,10140000.000,-4.00
509,10160000.000,-4.00
510,10180000.000,-4.00
511,10200000.000,-8.00
512,10220000.000,-4.00
513,10240000.000,0.00
514,10260000.000,-4.00
515,10280000.000,-4.00
516,10300000.000,-8.00
517,10320000.000,0.00
518,10340000.000,0.00
519,10360000.000,-4.00
520,10380000.000,-4.00
521,10400000.000,-8.00
522,10420000.000,0.00
523,10440000.000,-4.00
524,10460000.000,-4.00
525,10480000.000,-4.00
526,10500000.000,-4.00
527,10520000.000,-4.00
528,10540000.000,-4.00
529,10560000.000,0.00
530,10580000.000,-4.00
531,10600000.000,-4.00
532,10620000.000,-4.00
533,10640000.000,-4.00
534,10660000.000,0.00
535,10680000.000,-132.00
536,10700000.000,4.00
537,10720000.000,4.00
538,10740000.000,4.00
539,10760000.000,8.00
540,10780000.000,8.00
541,10800000.000,4.00
542,10820000.000,4.00
543,10840000.000,4.00
544,10860000.000,4.00
545,10880000.000,8.00
546,10900000.000,4.00
547,10920000.000,0.00
548,10940000.000,4.00
549,10960000.000,0.00
550,10980000.000,0.00
551,11000000.000,4.00
552,11020000.000,0.00
553,11040000.000,0.00
554,11060000.000,0.00
555,11080000.000,0.00
556,11100000.000,0.00
557,11120000.000,4.00
558,11140000.000,0.00
559,11160000.000,-4.00
560,11180000.000,-4.00
561,11200000.000,-4.00
562,11220000.000,0.00
563,11240000.000,0.00
564,11260000.000,-4.00
565,11280000.000,-4.00
566,11300000.000,-4.00
567,11320000.000,-4.00
568,11340000.000,0.00
569,11360000.000,0.00
570,11380000.000,0.00
571,11400000.000,0.00
572,11420000.000,-4.00
573,11440000.000,-4.00
574,11460000.000,0.00
575,11480000.000,-4.00
576,11500000.000,-4.00
577,11520000.000,-4.00
578,11540000.000,-4.00
579,11560000.000,-8.00
580,11580000.000,-4.00
581,11600000.000,-4.00
582,11620000.000,-4.00
583,11640000.000,-4.00
584,11660000.000,-4.00
585,11680000.000,0.00
586,11700000.000,124.00
587,11720000.000,8.00
588,11740000.000,-12.00
589,11760000.000,-16.00
590,11780000.000,-16.00
591,11800000.000,-16.00
592,11820000.000,-8.00
593,11840000.000,-8.00
594,11860000.000,-8.00
595,11880000.000,-12.00
596,11900000.000,-12.00
597,11920000.000,-8.00
598,11940000.000,-12.00
599,11960000.000,-8.00
600,11980000.000,-4.00
601,12000000.000,-8.00
602,12020000.000,-4.00
603,12040000.000,-8.00
604,12060000.000,-4.00
605,12080000.000,-4.00
606,12100000.000,-4.00
607,12120000.000,-4.00
608,12140000.000,-4.00
609,12160000.000,-8.00
610,12180000.000,-4.00
611,12200000.000,0.00
612,12220000.000,0.00
613,12240000.000,-4.00
614,12260000.000,-4.00
615,12280000.000,-4.00
616,12300000.000,0.00
617,12320000.000,0.00
618,12340000.000,-4.00
619,12360000.000,-4.00
620,12380000.000,-4.00
621,12400000.000,-4.00
622,12420000.000,-4.00
623,12440000.000,0.00
624,12460000.000,-4.00
625,12480000.000,-4.00
626,12500000.000,-4.00
627,12520000.000,-4.00
628,12540000.000,-4.00
629,12560000.000,0.00
630,12580000.000,0.00
631,12600000.000,-4.00
632,12620000.000,-4.00
633,12640000.000,-4.00
634,12660000.000,-4.00
635,12680000.000,0.00
636,12700000.000,0.00
637,12720000.000,-4.00
638,12740000.000,-76.00
639,12760000.000,4.00
640,12780000.000,8.00
641,12800000.000,8.00
642,12820000.000,4.00
643,12840000.000,8.00
644,12860000.000,8.00
645,12880000.000,8.00
646,12900000.000,4.00
647,12920000.000,8.00
648,12940000.000,4.00
649,12960000.000,0.00
650,12980000.000,0.00
651,13000000.000,4.00
652,13020000.000,4.00
653,13040000.000,4.00
654,13060000.000,4.00
655,13080000.000,0.00
656,13100000.000,0.00
657,13120000.000,-4.00
658,13140000.000,0.00
659,13160000.000,0.00
660,13180000.000,0.00
661,13200000.000,0.00
662,13220000.000,0.00
663,13240000.000,-4.00
664,13260000.000,0.00
665,13280000.000,0.00
666,13300000.000,0.00
667,13320000.000,-4.00
668,13340000.000,-4.00
669,13360000.000,-4.00
670,13380000.000,0.00
671,13400000.000,0.00
672,13420000.000,0.00
673,13440000.000,-4.00
674,13460000.000,-4.00
675,13480000.000,-4.00
676,13500000.000,0.00
677,13520000.000,0.00
678,13540000.000,-4.00
679,13560000.000,0.00
680,13580000.000,-4.00
681,13600000.000,-4.00
682,13620000.000,-4.00
683,13640000.000,0.00
684,13660000.000,0.00
685,13680000.000,0.00
686,13700000.000,-4.00
687,13720000.000,-4.00
688,13740000.000,0.00
689,13760000.000,256.00
690,13780000.000,0.00
691,13800000.000,-12.00
692,13820000.000,-12.00
693,13840000.000,-12.00
694,13860000.000,-12.00
695,13880000.000,-16.00
696,13900000.000,-12.00
697,13920000.000,-8.00
698,13940000.000,-8.00
699,13960000.000,-16.00
700,13980000.000,-8.00
701,14000000.000,-8.00
702,14020000.000,-12.00
703,14040000.000,-4.00
704,14060000.000,-8.00
705,14080000.000,-8.00
706,14100000.000,-8.00
707,14120000.000,0.00
708,14140000.000,-8.00
709,14160000.000,0.00
710,14180000.000,0.00
711,14200000.000,-8.00
712,14220000.000,-8.00
713,14240000.000,-4.00
714,14260000.000,0.00
715,14280000.000,0.00
716,14300000.000,0.00
717,14320000.000,-4.00
718,14340000.000,-8.00
719,14360000.000,-4.00
720,14380000.000,-4.00
721,14400000.000,0.00
722,14420000.000,0.00
723,14440000.000,0.00
724,14460000.000,0.00
725,14480000.000,-4.00
726,14500000.000,-4.00
727,14520000.000,-4.00
728,14540000.000,0.00
729,14560000.000,-4.00
730,14580000.000,0.00
731,14600000.000,-4.00
732,14620000.000,-4.00
733,14640000.000,0.00
734,14660000.000,-4.00
735,14680000.000,-4.00
736,14700000.000,-4.00
737,14720000.000,-4.00
738,14740000.000,-4.00
739,14760000.000,-4.00
740,14780000.000,0.00
741,14800000.000,-24.00
742,14820000.000,4.00
743,14840000.000,12.00
744,14860000.000,8.00
745,14880000.000,8.00
746,14900000.000,8.00
747,14920000.000,4.00
748,14940000.000,4.00
749,14960000.000,4.00
750,14980000.000,8.00
751,15000000.000,4.00
752,15020000.000,4.00
753,15040000.000,4.00
754,15060000.000,4.00
755,15080000.000,4.00
756,15100000.000,4.00
757,15120000.000,0.00
758,15140000.000,4.00
759,15160000.000,4.00
760,15180000.000,0.00
