Units:(mV)
,CH1
Status:,Stop
Frequency:,5.000 kHz
Period:,200.000 uS
SP:,10.000 uS
PK-PK:,848.000 mV

1,0.000,0.00
2,10.000,0.00
3,20.000,0.00
4,30.000,0.00
5,40.000,0.00
6,50.000,0.00
7,60.000,0.00
8,70.000,0.00
9,80.000,0.00
10,90.000,0.00
11,100.000,0.00
12,110.000,272.00
13,120.000,352.00
14,130.000,400.00
15,140.000,408.00
16,150.000,384.00
17,160.000,312.00
18,170.000,216.00
19,180.000,96.00
20,190.000,-32.00
21,200.000,-160.00
22,210.000,-272.00
23,220.000,-352.00
24,230.000,-408.00
25,240.000,-416.00
26,250.000,-384.00
27,260.000,-312.00
28,270.000,-216.00
29,280.000,-88.00
30,290.000,40.00
31,300.000,160.00
32,310.000,272.00
33,320.000,352.00
34,330.000,400.00
35,340.000,416.00
36,350.000,384.00
37,360.000,312.00
38,370.000,216.00
39,380.000,96.00
40,390.000,-32.00
41,400.000,-152.00
42,410.000,-272.00
43,420.000,-352.00
44,430.000,-408.00
45,440.000,-424.00
46,450.000,-392.00
47,460.000,-312.00
48,470.000,-208.00
49,480.000,-88.00
50,490.000,40.00
51,500.000,160.00
52,510.000,272.00
53,520.000,352.00
54,530.000,400.00
55,540.000,416.00
56,550.000,392.00
57,560.000,320.00
58,570.000,216.00
59,580.000,96.00
60,590.000,-32.00
61,600.000,-152.00
62,610.000,-272.00
63,620.000,-360.00
64,630.000,-408.00
65,640.000,-424.00
66,650.000,-384.00
67,660.000,-312.00
68,670.000,-208.00
69,680.000,-88.00
70,690.000,32.00
71,700.000,160.00
72,710.000,272.00
73,720.000,360.00
74,730.000,408.00
75,740.000,416.00
76,750.000,392.00
77,760.000,320.00
78,770.000,216.00
79,780.000,96.00
80,790.000,-40.00
81,800.000,-160.00
82,810.000,-272.00
83,820.000,-360.00
84,830.000,-408.00
85,840.000,-416.00
86,850.000,-384.00
87,860.000,-320.00
88,870.000,-208.00
89,880.000,-80.00
90,890.000,40.00
91,900.000,160.00
92,910.000,272.00
93,920.000,352.00
94,930.000,400.00
95,940.000,416.00
96,950.000,384.00
97,960.000,320.00
98,970.000,216.00
99,980.000,96.00
100,990.000,-32.00
101,1000.000,-160.00
102,1010.000,-272.00
103,1020.000,-360.00
104,1030.000,-408.00
105,1040.000,-424.00
106,1050.000,-392.00
107,1060.000,-312.00
108,1070.000,-208.00
109,1080.000,-88.00
110,1090.000,48.00
111,1100.000,152.00
112,1110.000,272.00
113,1120.000,352.00
114,1130.000,400.00
115,1140.000,416.00
116,1150.000,384.00
117,1160.000,312.00
118,1170.000,224.00
119,1180.000,96.00
120,1190.000,-32.00
121,1200.000,-160.00
122,1210.000,-272.00
123,1220.000,-352.00
124,1230.000,-408.00
125,1240.000,-416.00
126,1250.000,-392.00
127,1260.000,-320.00
128,1270.000,-216.00
129,1280.000,-96.00
130,1290.000,40.00
131,1300.000,160.00
132,1310.000,272.00
133,1320.000,352.00
134,1330.000,408.00
135,1340.000,416.00
136,1350.000,384.00
137,1360.000,320.00
138,1370.000,216.00
139,1380.000,96.00
140,1390.000,-32.00
141,1400.000,-152.00
142,1410.000,-272.00
143,1420.000,-352.00
144,1430.000,-408.00
145,1440.000,-424.00
146,1450.000,-384.00
147,1460.000,-312.00
148,1470.000,-216.00
149,1480.000,-88.00
150,1490.000,40.00
151,1500.000,160.00
152,1510.000,272.00
153,1520.000,360.00
154,1530.000,400.00
155,1540.000,424.00
156,1550.000,384.00
157,1560.000,320.00
158,1570.000,216.00
159,1580.000,96.00
160,1590.000,-32.00
161,1600.000,-160.00
162,1610.000,-272.00
163,1620.000,-352.00
164,1630.000,-408.00
165,1640.000,-416.00
166,1650.000,-392.00
167,1660.000,-312.00
168,1670.000,-216.00
169,1680.000,-88.00
170,1690.000,40.00
171,1700.000,160.00
172,1710.000,272.00
173,1720.000,352.00
174,1730.000,408.00
175,1740.000,416.00
176,1750.000,392.00
177,1760.000,320.00
178,1770.000,216.00
179,1780.000,96.00
180,1790.000,-32.00
181,1800.000,-152.00
182,1810.000,-272.00
183,1820.000,-360.00
184,1830.000,-408.00
185,1840.000,-424.00
186,1850.000,-384.00
187,1860.000,-320.00
188,1870.000,-208.00
189,1880.000,-88.00
190,1890.000,40.00
191,1900.000,160.00
192,1910.000,272.00
193,1920.000,352.00
194,1930.000,400.00
195,1940.000,416.00
196,1950.000,384.00
197,1960.000,320.00
198,1970.000,216.00
199,1980.000,96.00
200,1990.000,-32.00
201,2000.000,-160.00
202,2010.000,-272.00
203,2020.000,-352.00
204,2030.000,-408.00
205,2040.000,-424.00
206,2050.000,-384.00
207,2060.000,-312.00
208,2070.000,-208.00
209,2080.000,-88.00
210,2090.000,40.00
211,2100.000,168.00
212,2110.000,272.00
213,2120.000,352.00
214,2130.000,400.00
215,2140.000,416.00
216,2150.000,384.00
217,2160.000,312.00
218,2170.000,216.00
219,2180.000,96.00
220,2190.000,-32.00
221,2200.000,-152.00
222,2210.000,-264.00
223,2220.000,-352.00
224,2230.000,-408.00
225,2240.000,-416.00
226,2250.000,-392.00
227,2260.000,-320.00
228,2270.000,-208.00
229,2280.000,-88.00
230,2290.000,40.00
231,2300.000,160.00
232,2310.000,272.00
233,2320.000,352.00
234,2330.000,408.00
235,2340.000,408.00
236,2350.000,384.00
237,2360.000,312.00
238,2370.000,216.00
239,2380.000,96.00
240,2390.000,-32.00
241,2400.000,-160.00
242,2410.000,-272.00
243,2420.000,-352.00
244,2430.000,-408.00
245,2440.000,-416.00
246,2450.000,-392.00
247,2460.000,-320.00
248,2470.000,-216.00
249,2480.000,-88.00
250,2490.000,40.00
251,2500.000,160.00
252,2510.000,272.00
253,2520.000,352.00
254,2530.000,408.00
255,2540.000,416.00
256,2550.000,384.00
257,2560.000,312.00
258,2570.000,216.00
259,2580.000,96.00
260,2590.000,-32.00
261,2600.000,-160.00
262,2610.000,-272.00
263,2620.000,-352.00
264,2630.000,-408.00
265,2640.000,-424.00
266,2650.000,-384.00
267,2660.000,-320.00
268,2670.000,-208.00
269,2680.000,-88.00
270,2690.000,40.00
271,2700.000,168.00
272,2710.000,264.00
273,2720.000,352.00
274,2730.000,400.00
275,2740.000,416.00
276,2750.000,384.00
277,2760.000,320.00
278,2770.000,208.00
279,2780.000,88.00
280,2790.000,-40.00
281,2800.000,-160.00
282,2810.000,-272.00
283,2820.000,-352.00
284,2830.000,-408.00
285,2840.000,-416.00
286,2850.000,-392.00
287,2860.000,-312.00
288,2870.000,-216.00
289,2880.000,-96.00
290,2890.000,40.00
291,2900.000,168.00
292,2910.000,264.00
293,2920.000,352.00
294,2930.000,408.00
295,2940.000,416.00
296,2950.000,384.00
297,2960.000,320.00
298,2970.000,216.00
299,2980.000,96.00
300,2990.000,-32.00
301,3000.000,-152.00
302,3010.000,-264.00
303,3020.000,-352.00
304,3030.000,-408.00
305,3040.000,-416.00
306,3050.000,-392.00
307,3060.000,-320.00
308,3070.000,-208.00
309,3080.000,-88.00
310,3090.000,40.00
311,3100.000,168.00
312,3110.000,272.00
313,3120.000,360.00
314,3130.000,400.00
315,3140.000,408.00
316,3150.000,384.00
317,3160.000,312.00
318,3170.000,216.00
319,3180.000,96.00
320,3190.000,-40.00
321,3200.000,-160.00
322,3210.000,-264.00
323,3220.000,-360.00
324,3230.000,-408.00
325,3240.000,-424.00
326,3250.000,-392.00
327,3260.000,-312.00
328,3270.000,-216.00
329,3280.000,-88.00
330,3290.000,40.00
331,3300.000,168.00
332,3310.000,272.00
333,3320.000,352.00
334,3330.000,400.00
335,3340.000,416.00
336,3350.000,384.00
337,3360.000,312.00
338,3370.000,216.00
339,3380.000,96.00
340,3390.000,-32.00
341,3400.000,-160.00
342,3410.000,-264.00
343,3420.000,-352.00
344,3430.000,-408.00
345,3440.000,-424.00
346,3450.000,-384.00
347,3460.000,-320.00
348,3470.000,-208.00
349,3480.000,-88.00
350,3490.000,32.00
351,3500.000,168.00
352,3510.000,272.00
353,3520.000,352.00
354,3530.000,400.00
355,3540.000,416.00
356,3550.000,384.00
357,3560.000,312.00
358,3570.000,216.00
359,3580.000,96.00
360,3590.000,-24.00
361,3600.000,-152.00
362,3610.000,-280.00
363,3620.000,-352.00
364,3630.000,-408.00
365,3640.000,-416.00
366,3650.000,-384.00
367,3660.000,-320.00
368,3670.000,-216.00
369,3680.000,-88.00
370,3690.000,40.00
371,3700.000,160.00
372,3710.000,272.00
373,3720.000,360.00
374,3730.000,408.00
375,3740.000,408.00
376,3750.000,392.00
377,3760.000,320.00
378,3770.000,216.00
379,3780.000,96.00
380,3790.000,-32.00
381,3800.000,-160.00
382,3810.000,-272.00
383,3820.000,-360.00
384,3830.000,-408.00
385,3840.000,-416.00
386,3850.000,-384.00
387,3860.000,-320.00
388,3870.000,-208.00
389,3880.000,-88.00
390,3890.000,40.00
391,3900.000,160.00
392,3910.000,272.00
393,3920.000,352.00
394,3930.000,400.00
395,3940.000,416.00
396,3950.000,384.00
397,3960.000,320.00
398,3970.000,216.00
399,3980.000,96.00
400,3990.000,-32.00
401,4000.000,-160.00
402,4010.000,-272.00
403,4020.000,-352.00
404,4030.000,-408.00
405,4040.000,-416.00
406,4050.000,-392.00
407,4060.000,-320.00
408,4070.000,-216.00
409,4080.000,-88.00
410,4090.000,40.00
411,4100.000,160.00
412,4110.000,272.00
413,4120.000,352.00
414,4130.000,400.00
415,4140.000,416.00
416,4150.000,384.00
417,4160.000,320.00
418,4170.000,216.00
419,4180.000,96.00
420,4190.000,-32.00
421,4200.000,-152.00
422,4210.000,-272.00
423,4220.000,-360.00
424,4230.000,-408.00
425,4240.000,-416.00
426,4250.000,-392.00
427,4260.000,-312.00
428,4270.000,-216.00
429,4280.000,-88.00
430,4290.000,40.00
431,4300.000,168.00
432,4310.000,272.00
433,4320.000,352.00
434,4330.000,400.00
435,4340.000,408.00
436,4350.000,384.00
437,4360.000,312.00
438,4370.000,216.00
439,4380.000,88.00
440,4390.000,-32.00
441,4400.000,-160.00
442,4410.000,-272.00
443,4420.000,-360.00
444,4430.000,-408.00
445,4440.000,-424.00
446,4450.000,-392.00
447,4460.000,-320.00
448,4470.000,-216.00
449,4480.000,-88.00
450,4490.000,40.00
451,4500.000,160.00
452,4510.000,272.00
453,4520.000,352.00
454,4530.000,408.00
455,4540.000,416.00
456,4550.000,384.00
457,4560.000,320.00
458,4570.000,208.00
459,4580.000,104.00
460,4590.000,-32.00
461,4600.000,-152.00
462,4610.000,-272.00
463,4620.000,-360.00
464,4630.000,-408.00
465,4640.000,-416.00
466,4650.000,-384.00
467,4660.000,-312.00
468,4670.000,-216.00
469,4680.000,-88.00
470,4690.000,40.00
471,4700.000,168.00
472,4710.000,272.00
473,4720.000,352.00
474,4730.000,400.00
475,4740.000,416.00
476,4750.000,384.00
477,4760.000,312.00
478,4770.000,216.00
479,4780.000,96.00
480,4790.000,-32.00
481,4800.000,-160.00
482,4810.000,-264.00
483,4820.000,-352.00
484,4830.000,-408.00
485,4840.000,-424.00
486,4850.000,-384.00
487,4860.000,-320.00
488,4870.000,-208.00
489,4880.000,-88.00
490,4890.000,40.00
491,4900.000,160.00
492,4910.000,272.00
493,4920.000,352.00
494,4930.000,400.00
495,4940.000,416.00
496,4950.000,384.00
497,4960.000,320.00
498,4970.000,216.00
499,4980.000,96.00
500,4990.000,-32.00
501,5000.000,-160.00
502,5010.000,-272.00
503,5020.000,-352.00
504,5030.000,-408.00
505,5040.000,-424.00
506,5050.000,-384.00
507,5060.000,-312.00
508,5070.000,-216.00
509,5080.000,-88.00
510,5090.000,40.00
511,5100.000,160.00
512,5110.000,272.00
513,5120.000,352.00
514,5130.000,400.00
515,5140.000,416.00
516,5150.000,384.00
517,5160.000,320.00
518,5170.000,216.00
519,5180.000,88.00
520,5190.000,-32.00
521,5200.000,-160.00
522,5210.000,-272.00
523,5220.000,-352.00
524,5230.000,-408.00
525,5240.000,-416.00
526,5250.000,-384.00
527,5260.000,-312.00
528,5270.000,-216.00
529,5280.000,-88.00
530,5290.000,40.00
531,5300.000,160.00
532,5310.000,264.00
533,5320.000,352.00
534,5330.000,400.00
535,5340.000,416.00
536,5350.000,392.00
537,5360.000,320.00
538,5370.000,216.00
539,5380.000,96.00
540,5390.000,-32.00
541,5400.000,-160.00
542,5410.000,-272.00
543,5420.000,-352.00
544,5430.000,-408.00
545,5440.000,-416.00
546,5450.000,-392.00
547,5460.000,-312.00
548,5470.000,-216.00
549,5480.000,-88.00
550,5490.000,40.00
551,5500.000,160.00
552,5510.000,272.00
553,5520.000,352.00
554,5530.000,408.00
555,5540.000,416.00
556,5550.000,384.00
557,5560.000,320.00
558,5570.000,216.00
559,5580.000,96.00
560,5590.000,-32.00
561,5600.000,-152.00
562,5610.000,-264.00
563,5620.000,-352.00
564,5630.000,-408.00
565,5640.000,-416.00
566,5650.000,-392.00
567,5660.000,-312.00
568,5670.000,-216.00
569,5680.000,-88.00
570,5690.000,48.00
571,5700.000,168.00
572,5710.000,272.00
573,5720.000,352.00
574,5730.000,408.00
575,5740.000,416.00
576,5750.000,384.00
577,5760.000,320.00
578,5770.000,216.00
579,5780.000,96.00
580,5790.000,-32.00
581,5800.000,-160.00
582,5810.000,-264.00
583,5820.000,-352.00
584,5830.000,-408.00
585,5840.000,-416.00
586,5850.000,-384.00
587,5860.000,-320.00
588,5870.000,-208.00
589,5880.000,-88.00
590,5890.000,40.00
591,5900.000,168.00
592,5910.000,272.00
593,5920.000,352.00
594,5930.000,408.00
595,5940.000,416.00
596,5950.000,384.00
597,5960.000,320.00
598,5970.000,216.00
599,5980.000,96.00
600,5990.000,-32.00
601,6000.000,-152.00
602,6010.000,-264.00
603,6020.000,-352.00
604,6030.000,-408.00
605,6040.000,-416.00
606,6050.000,-384.00
607,6060.000,-320.00
608,6070.000,-208.00
609,6080.000,-88.00
610,6090.000,40.00
611,6100.000,160.00
612,6110.000,272.00
613,6120.000,352.00
614,6130.000,408.00
615,6140.000,416.00
616,6150.000,392.00
617,6160.000,320.00
618,6170.000,216.00
619,6180.000,96.00
620,6190.000,-32.00
621,6200.000,-160.00
622,6210.000,-272.00
623,6220.000,-360.00
624,6230.000,-408.00
625,6240.000,-416.00
626,6250.000,-384.00
627,6260.000,-312.00
628,6270.000,-208.00
629,6280.000,-88.00
630,6290.000,40.00
631,6300.000,168.00
632,6310.000,272.00
633,6320.000,352.00
634,6330.000,408.00
635,6340.000,416.00
636,6350.000,392.00
637,6360.000,320.00
638,6370.000,224.00
639,6380.000,96.00
640,6390.000,-32.00
641,6400.000,-160.00
642,6410.000,-264.00
643,6420.000,-360.00
644,6430.000,-408.00
645,6440.000,-416.00
646,6450.000,-384.00
647,6460.000,-312.00
648,6470.000,-208.00
649,6480.000,-88.00
650,6490.000,40.00
651,6500.000,168.00
652,6510.000,272.00
653,6520.000,360.00
654,6530.000,400.00
655,6540.000,416.00
656,6550.000,384.00
657,6560.000,312.00
658,6570.000,224.00
659,6580.000,96.00
660,6590.000,-32.00
661,6600.000,-152.00
662,6610.000,-272.00
663,6620.000,-352.00
664,6630.000,-408.00
665,6640.000,-424.00
666,6650.000,-392.00
667,6660.000,-312.00
668,6670.000,-208.00
669,6680.000,-88.00
670,6690.000,40.00
671,6700.000,160.00
672,6710.000,272.00
673,6720.000,352.00
674,6730.000,408.00
675,6740.000,416.00
676,6750.000,392.00
677,6760.000,320.00
678,6770.000,216.00
679,6780.000,96.00
680,6790.000,-32.00
681,6800.000,-152.00
682,6810.000,-264.00
683,6820.000,-352.00
684,6830.000,-408.00
685,6840.000,-416.00
686,6850.000,-384.00
687,6860.000,-320.00
688,6870.000,-216.00
689,6880.000,-88.00
690,6890.000,40.00
691,6900.000,168.00
692,6910.000,272.00
693,6920.000,352.00
694,6930.000,408.00
695,6940.000,416.00
696,6950.000,392.00
697,6960.000,312.00
698,6970.000,216.00
699,6980.000,96.00
700,6990.000,-32.00
701,7000.000,-152.00
702,7010.000,-264.00
703,7020.000,-352.00
704,7030.000,-400.00
705,7040.000,-424.00
706,7050.000,-384.00
707,7060.000,-312.00
708,7070.000,-208.00
709,7080.000,-88.00
710,7090.000,40.00
711,7100.000,160.00
712,7110.000,272.00
713,7120.000,352.00
714,7130.000,400.00
715,7140.000,416.00
716,7150.000,384.00
717,7160.000,320.00
718,7170.000,216.00
719,7180.000,96.00
720,7190.000,-32.00
721,7200.000,-160.00
722,7210.000,-272.00
723,7220.000,-352.00
724,7230.000,-408.00
725,7240.000,-416.00
726,7250.000,-384.00
727,7260.000,-312.00
728,7270.000,-208.00
729,7280.000,-88.00
730,7290.000,48.00
731,7300.000,160.00
732,7310.000,272.00
733,7320.000,352.00
734,7330.000,400.00
735,7340.000,416.00
736,7350.000,384.00
737,7360.000,320.00
738,7370.000,216.00
739,7380.000,96.00
740,7390.000,-32.00
741,7400.000,-152.00
742,7410.000,-264.00
743,7420.000,-352.00
744,7430.000,-408.00
745,7440.000,-416.00
746,7450.000,-384.00
747,7460.000,-312.00
748,7470.000,-208.00
749,7480.000,-88.00
750,7490.000,40.00
751,7500.000,168.00
752,7510.000,272.00
753,7520.000,352.00
754,7530.000,408.00
755,7540.000,416.00
756,7550.000,392.00
757,7560.000,320.00
758,7570.000,216.00
759,7580.000,96.00
760,7590.000,-32.00
761,7600.000,-160.00
762,7610.000,-272.00
763,7620.000,-352.00
764,7630.000,-408.00
765,7640.000,-416.00
766,7650.000,-392.00
767,7660.000,-312.00
768,7670.000,-208.00
769,7680.000,-88.00
770,7690.000,40.00
771,7700.000,168.00
772,7710.000,272.00
773,7720.000,352.00
774,7730.000,400.00
775,7740.000,416.00
776,7750.000,384.00
777,7760.000,320.00
778,7770.000,216.00
779,7780.000,96.00
780,7790.000,-24.00
781,7800.000,-160.00
782,7810.000,-264.00
783,7820.000,-352.00
784,7830.000,-408.00
785,7840.000,-424.00
786,7850.000,-384.00
787,7860.000,-312.00
788,7870.000,-216.00
789,7880.000,-88.00
790,7890.000,40.00
791,7900.000,168.00
792,7910.000,264.00
793,7920.000,352.00
794,7930.000,408.00
795,7940.000,416.00
796,7950.000,384.00
797,7960.000,320.00
798,7970.000,216.00
799,7980.000,96.00
800,7990.000,-32.00
801,8000.000,-160.00
802,8010.000,-272.00
803,8020.000,-352.00
804,8030.000,-408.00
805,8040.000,-424.00
806,8050.000,-392.00
807,8060.000,-312.00
808,8070.000,-216.00
809,8080.000,-88.00
810,8090.000,40.00
811,8100.000,168.00
812,8110.000,272.00
813,8120.000,352.00
814,8130.000,408.00
815,8140.000,416.00
816,8150.000,384.00
817,8160.000,304.00
818,8170.000,216.00
819,8180.000,88.00
820,8190.000,-32.00
821,8200.000,-160.00
822,8210.000,-264.00
823,8220.000,-360.00
824,8230.000,-400.00
825,8240.000,-416.00
826,8250.000,-384.00
827,8260.000,-312.00
828,8270.000,-208.00
829,8280.000,-88.00
830,8290.000,48.00
831,8300.000,168.00
832,8310.000,272.00
833,8320.000,352.00
834,8330.000,408.00
835,8340.000,416.00
836,8350.000,392.00
837,8360.000,320.00
838,8370.000,224.00
839,8380.000,96.00
840,8390.000,-32.00
841,8400.000,-160.00
842,8410.000,-264.00
843,8420.000,-352.00
844,8430.000,-408.00
845,8440.000,-424.00
846,8450.000,-392.00
847,8460.000,-320.00
848,8470.000,-208.00
849,8480.000,-88.00
850,8490.000,40.00
851,8500.000,168.00
852,8510.000,272.00
853,8520.000,352.00
854,8530.000,408.00
855,8540.000,416.00
856,8550.000,392.00
857,8560.000,312.00
858,8570.000,224.00
859,8580.000,96.00
860,8590.000,-32.00
861,8600.000,-160.00
862,8610.000,-272.00
863,8620.000,-352.00
864,8630.000,-408.00
865,8640.000,-424.00
866,8650.000,-384.00
867,8660.000,-320.00
868,8670.000,-208.00
869,8680.000,-88.00
870,8690.000,40.00
871,8700.000,168.00
872,8710.000,272.00
873,8720.000,352.00
874,8730.000,408.00
875,8740.000,416.00
876,8750.000,392.00
877,8760.000,312.00
878,8770.000,216.00
879,8780.000,96.00
880,8790.000,-32.00
881,8800.000,-160.00
882,8810.000,-272.00
883,8820.000,-352.00
884,8830.000,-408.00
885,8840.000,-424.00
886,8850.000,-392.00
887,8860.000,-320.00
888,8870.000,-216.00
889,8880.000,-96.00
890,8890.000,40.00
891,8900.000,160.00
892,8910.000,272.00
893,8920.000,352.00
894,8930.000,400.00
895,8940.000,416.00
896,8950.000,384.00
897,8960.000,320.00
898,8970.000,216.00
899,8980.000,96.00
900,8990.000,-32.00
901,9000.000,-160.00
902,9010.000,-272.00
903,9020.000,-360.00
904,9030.000,-416.00
905,9040.000,-424.00
906,9050.000,-392.00
907,9060.000,-320.00
908,9070.000,-216.00
909,9080.000,-88.00
910,9090.000,40.00
911,9100.000,160.00
912,9110.000,272.00
913,9120.000,352.00
914,9130.000,400.00
915,9140.000,416.00
916,9150.000,384.00
917,9160.000,312.00
918,9170.000,216.00
919,9180.000,96.00
920,9190.000,-32.00
921,9200.000,-152.00
922,9210.000,-272.00
923,9220.000,-352.00
924,9230.000,-408.00
925,9240.000,-424.00
926,9250.000,-384.00
927,9260.000,-312.00
928,9270.000,-208.00
929,9280.000,-88.00
930,9290.000,40.00
931,9300.000,168.00
932,9310.000,272.00
933,9320.000,352.00
934,9330.000,408.00
935,9340.000,416.00
936,9350.000,392.00
937,9360.000,320.00
938,9370.000,216.00
939,9380.000,96.00
940,9390.000,-32.00
941,9400.000,-160.00
942,9410.000,-272.00
943,9420.000,-352.00
944,9430.000,-408.00
945,9440.000,-416.00
946,9450.000,-384.00
947,9460.000,-312.00
948,9470.000,-216.00
949,9480.000,-88.00
950,9490.000,40.00
951,9500.000,160.00
952,9510.000,272.00
953,9520.000,352.00
954,9530.000,408.00
955,9540.000,416.00
956,9550.000,384.00
957,9560.000,312.00
958,9570.000,216.00
959,9580.000,96.00
960,9590.000,-32.00
961,9600.000,-160.00
962,9610.000,-272.00
963,9620.000,-360.00
964,9630.000,-408.00
965,9640.000,-416.00
966,9650.000,-392.00
967,9660.000,-320.00
968,9670.000,-208.00
969,9680.000,-80.00
970,9690.000,40.00
971,9700.000,168.00
972,9710.000,272.00
973,9720.000,352.00
974,9730.000,408.00
975,9740.000,416.00
976,9750.000,384.00
977,9760.000,320.00
978,9770.000,216.00
979,9780.000,96.00
980,9790.000,-32.00
981,9800.000,-160.00
982,9810.000,-272.00
983,9820.000,-352.00
984,9830.000,-408.00
985,9840.000,-416.00
986,9850.000,-384.00
987,9860.000,-312.00
988,9870.000,-208.00
989,9880.000,-88.00
990,9890.000,40.00
991,9900.000,160.00
992,9910.000,280.00
993,9920.000,352.00
994,9930.000,400.00
995,9940.000,416.00
996,9950.000,384.00
997,9960.000,320.00
998,9970.000,216.00
999,9980.000,96.00
1000,9990.000,-32.00
