Units:(mV)
,CH1
Status:,Stop
Frequency:,99.857 Hz
Period:,10.014 mS
SP:,100.000 uS
PK-PK:,112.000 mV

1,0.000,0.00
2,100.000,0.00
3,200.000,0.00
4,300.000,0.00
5,400.000,0.00
6,500.000,0.00
7,600.000,0.00
8,700.000,0.00
9,800.000,0.00
10,900.000,0.00
11,1000.000,0.00
12,1100.000,-48.00
13,1200.000,-44.00
14,1300.000,-44.00
15,1400.000,-48.00
16,1500.000,-48.00
17,1600.000,-48.00
18,1700.000,-52.00
19,1800.000,-48.00
20,1900.000,-52.00
21,2000.000,-52.00
22,2100.000,-48.00
23,2200.000,-48.00
24,2300.000,-48.00
25,2400.000,-48.00
26,2500.000,-44.00
27,2600.000,-44.00
28,2700.000,-44.00
29,2800.000,-40.00
30,2900.000,-44.00
31,3000.000,-40.00
32,3100.000,-36.00
33,3200.000,-36.00
34,3300.000,-32.00
35,3400.000,-28.00
36,3500.000,-24.00
37,3600.000,-20.00
38,3700.000,-20.00
39,3800.000,-20.00
40,3900.000,-16.00
41,4000.000,-12.00
42,4100.000,-8.00
43,4200.000,-8.00
44,4300.000,-4.00
45,4400.000,0.00
46,4500.000,0.00
47,4600.000,8.00
48,4700.000,12.00
49,4800.000,8.00
50,4900.000,12.00
51,5000.000,20.00
52,5100.000,20.00
53,5200.000,24.00
54,5300.000,28.00
55,5400.000,32.00
56,5500.000,32.00
57,5600.000,32.00
58,5700.000,36.00
59,5800.000,40.00
60,5900.000,40.00
61,6000.000,40.00
62,6100.000,44.00
63,6200.000,48.00
64,6300.000,44.00
65,6400.000,48.00
66,6500.000,52.00
67,6600.000,48.00
68,6700.000,52.00
69,6800.000,48.00
70,6900.000,48.00
71,7000.000,52.00
72,7100.000,52.00
73,7200.000,48.00
74,7300.000,52.00
75,7400.000,48.00
76,7500.000,48.00
77,7600.000,48.00
78,7700.000,44.00
79,7800.000,40.00
80,7900.000,44.00
81,8000.000,40.00
82,8100.000,40.00
83,8200.000,36.00
84,8300.000,32.00
85,8400.000,28.00
86,8500.000,28.00
87,8600.000,24.00
88,8700.000,20.00
89,8800.000,20.00
90,8900.000,16.00
91,9000.000,12.00
92,9100.000,12.00
93,9200.000,8.00
94,9300.000,4.00
95,9400.000,0.00
96,9500.000,0.00
97,9600.000,-4.00
98,9700.000,-4.00
99,9800.000,-8.00
100,9900.000,-16.00
101,10000.000,-20.00
102,10100.000,-24.00
103,10200.000,-24.00
104,10300.000,-28.00
105,10400.000,-28.00
106,10500.000,-28.00
107,10600.000,-36.00
108,10700.000,-36.00
109,10800.000,-40.00
110,10900.000,-44.00
111,11000.000,-40.00
112,11100.000,-40.00
113,11200.000,-48.00
114,11300.000,-48.00
115,11400.000,-52.00
116,11500.000,-48.00
117,11600.000,-48.00
118,11700.000,-52.00
119,11800.000,-48.00
120,11900.000,-48.00
121,12000.000,-48.00
122,12100.000,-48.00
123,12200.000,-48.00
124,12300.000,-48.00
125,12400.000,-48.00
126,12500.000,-48.00
127,12600.000,-44.00
128,12700.000,-44.00
129,12800.000,-40.00
130,12900.000,-44.00
131,13000.000,-36.00
132,13100.000,-36.00
133,13200.000,-32.00
134,13300.000,-32.00
135,13400.000,-28.00
136,13500.000,-20.00
137,13600.000,-20.00
138,13700.000,-16.00
139,13800.000,-16.00
140,13900.000,-12.00
141,14000.000,-12.00
142,14100.000,-4.00
143,14200.000,-8.00
144,14300.000,0.00
145,14400.000,0.00
146,14500.000,4.00
147,14600.000,8.00
148,14700.000,8.00
149,14800.000,16.00
150,14900.000,16.00
151,15000.000,20.00
152,15100.000,24.00
153,15200.000,28.00
154,15300.000,28.00
155,15400.000,28.00
156,15500.000,36.00
157,15600.000,36.00
158,15700.000,40.00
159,15800.000,40.00
160,15900.000,44.00
161,16000.000,44.00
162,16100.000,48.00
163,16200.000,48.00
164,16300.000,44.00
165,16400.000,52.00
166,16500.000,52.00
167,16600.000,52.00
168,16700.000,52.00
169,16800.000,52.00
170,16900.000,52.00
171,17000.000,56.00
172,17100.000,52.00
173,17200.000,52.00
174,17300.000,52.00
175,17400.000,52.00
176,17500.000,52.00
177,17600.000,52.00
178,17700.000,48.00
179,17800.000,48.00
180,17900.000,48.00
181,18000.000,44.00
182,18100.000,44.00
183,18200.000,44.00
184,18300.000,36.00
185,18400.000,36.00
186,18500.000,32.00
187,18600.000,28.00
188,18700.000,28.00
189,18800.000,24.00
190,18900.000,20.00
191,19000.000,16.00
192,19100.000,16.00
193,19200.000,12.00
194,19300.000,8.00
195,19400.000,8.00
196,19500.000,4.00
197,19600.000,-4.00
198,19700.000,-8.00
199,19800.000,-8.00
200,19900.000,-12.00
201,20000.000,-16.00
202,20100.000,-20.00
203,20200.000,-24.00
204,20300.000,-24.00
205,20400.000,-24.00
206,20500.000,-32.00
207,20600.000,-32.00
208,20700.000,-36.00
209,20800.000,-36.00
210,20900.000,-40.00
211,21000.000,-40.00
212,21100.000,-44.00
213,21200.000,-44.00
214,21300.000,-44.00
215,21400.000,-44.00
216,21500.000,-44.00
217,21600.000,-48.00
218,21700.000,-48.00
219,21800.000,-44.00
220,21900.000,-48.00
221,22000.000,-48.00
222,22100.000,-48.00
223,22200.000,-44.00
224,22300.000,-44.00
225,22400.000,-44.00
226,22500.000,-44.00
227,22600.000,-40.00
228,22700.000,-40.00
229,22800.000,-36.00
230,22900.000,-36.00
231,23000.000,-32.00
232,23100.000,-32.00
233,23200.000,-28.00
234,23300.000,-28.00
235,23400.000,-24.00
236,23500.000,-24.00
237,23600.000,-20.00
238,23700.000,-16.00
239,23800.000,-16.00
240,23900.000,-12.00
241,24000.000,-8.00
242,24100.000,-8.00
243,24200.000,-4.00
244,24300.000,0.00
245,24400.000,4.00
246,24500.000,4.00
247,24600.000,8.00
248,24700.000,12.00
249,24800.000,16.00
250,24900.000,20.00
251,25000.000,24.00
252,25100.000,28.00
253,25200.000,28.00
254,25300.000,32.00
255,25400.000,32.00
256,25500.000,36.00
257,25600.000,36.00
258,25700.000,36.00
259,25800.000,44.00
260,25900.000,44.00
261,26000.000,48.00
262,26100.000,52.00
263,26200.000,52.00
264,26300.000,52.00
265,26400.000,52.00
266,26500.000,52.00
267,26600.000,56.00
268,26700.000,56.00
269,26800.000,52.00
270,26900.000,52.00
271,27000.000,52.00
272,27100.000,52.00
273,27200.000,52.00
274,27300.000,52.00
275,27400.000,52.00
276,27500.000,52.00
277,27600.000,48.00
278,27700.000,52.00
279,27800.000,44.00
280,27900.000,44.00
281,28000.000,40.00
282,28100.000,40.00
283,28200.000,36.00
284,28300.000,32.00
285,28400.000,32.00
286,28500.000,28.00
287,28600.000,28.00
288,28700.000,24.00
289,28800.000,20.00
290,28900.000,20.00
291,29000.000,16.00
292,29100.000,12.00
293,29200.000,8.00
294,29300.000,4.00
295,29400.000,0.00
296,29500.000,-4.00
297,29600.000,-4.00
298,29700.000,-8.00
299,29800.000,-12.00
300,29900.000,-16.00
301,30000.000,-16.00
302,30100.000,-24.00
303,30200.000,-20.00
304,30300.000,-24.00
305,30400.000,-28.00
306,30500.000,-32.00
307,30600.000,-32.00
308,30700.000,-36.00
309,30800.000,-40.00
310,30900.000,-40.00
311,31000.000,-44.00
312,31100.000,-48.00
313,31200.000,-48.00
314,31300.000,-48.00
315,31400.000,-48.00
316,31500.000,-48.00
317,31600.000,-52.00
318,31700.000,-52.00
319,31800.000,-52.00
320,31900.000,-52.00
321,32000.000,-52.00
322,32100.000,-52.00
323,32200.000,-48.00
324,32300.000,-48.00
325,32400.000,-48.00
326,32500.000,-48.00
327,32600.000,-44.00
328,32700.000,-44.00
329,32800.000,-48.00
330,32900.000,-40.00
331,33000.000,-36.00
332,33100.000,-36.00
333,33200.000,-32.00
334,33300.000,-32.00
335,33400.000,-28.00
336,33500.000,-24.00
337,33600.000,-24.00
338,33700.000,-24.00
339,33800.000,-20.00
340,33900.000,-16.00
341,34000.000,-12.00
342,34100.000,-8.00
343,34200.000,-8.00
344,34300.000,-4.00
345,34400.000,0.00
346,34500.000,4.00
347,34600.000,4.00
348,34700.000,12.00
349,34800.000,12.00
350,34900.000,20.00
351,35000.000,16.00
352,35100.000,24.00
353,35200.000,24.00
354,35300.000,28.00
355,35400.000,32.00
356,35500.000,32.00
357,35600.000,36.00
358,35700.000,36.00
359,35800.000,40.00
360,35900.000,40.00
361,36000.000,44.00
362,36100.000,44.00
363,36200.000,48.00
364,36300.000,48.00
365,36400.000,48.00
366,36500.000,48.00
367,36600.000,52.00
368,36700.000,48.00
369,36800.000,56.00
370,36900.000,52.00
371,37000.000,56.00
372,37100.000,52.00
373,37200.000,52.00
374,37300.000,52.00
375,37400.000,52.00
376,37500.000,44.00
377,37600.000,48.00
378,37700.000,48.00
379,37800.000,44.00
380,37900.000,44.00
381,38000.000,40.00
382,38100.000,36.00
383,38200.000,36.00
384,38300.000,36.00
385,38400.000,32.00
386,38500.000,28.00
387,38600.000,24.00
388,38700.000,20.00
389,38800.000,20.00
390,38900.000,16.00
391,39000.000,12.00
392,39100.000,8.00
393,39200.000,8.00
394,39300.000,4.00
395,39400.000,0.00
396,39500.000,0.00
397,39600.000,-4.00
398,39700.000,-8.00
399,39800.000,-12.00
400,39900.000,-12.00
401,40000.000,-16.00
402,40100.000,-20.00
403,40200.000,-24.00
404,40300.000,-28.00
405,40400.000,-28.00
406,40500.000,-32.00
407,40600.000,-36.00
408,40700.000,-36.00
409,40800.000,-36.00
410,40900.000,-40.00
411,41000.000,-44.00
412,41100.000,-44.00
413,41200.000,-48.00
414,41300.000,-48.00
415,41400.000,-52.00
416,41500.000,-48.00
417,41600.000,-48.00
418,41700.000,-48.00
419,41800.000,-48.00
420,41900.000,-48.00
421,42000.000,-48.00
422,42100.000,-48.00
423,42200.000,-48.00
424,42300.000,-48.00
425,42400.000,-48.00
426,42500.000,-44.00
427,42600.000,-44.00
428,42700.000,-44.00
429,42800.000,-40.00
430,42900.000,-40.00
431,43000.000,-36.00
432,43100.000,-36.00
433,43200.000,-36.00
434,43300.000,-28.00
435,43400.000,-28.00
436,43500.000,-28.00
437,43600.000,-20.00
438,43700.000,-20.00
439,43800.000,-16.00
440,43900.000,-12.00
441,44000.000,-12.00
442,44100.000,-12.00
443,44200.000,-4.00
444,44300.000,-4.00
445,44400.000,0.00
446,44500.000,4.00
447,44600.000,8.00
448,44700.000,8.00
449,44800.000,16.00
450,44900.000,16.00
451,45000.000,20.00
452,45100.000,20.00
453,45200.000,24.00
454,45300.000,28.00
455,45400.000,32.00
456,45500.000,36.00
457,45600.000,32.00
458,45700.000,40.00
459,45800.000,40.00
460,45900.000,44.00
461,46000.000,44.00
462,46100.000,48.00
463,46200.000,48.00
464,46300.000,48.00
465,46400.000,48.00
466,46500.000,52.00
467,46600.000,52.00
468,46700.000,48.00
469,46800.000,56.00
470,46900.000,48.00
471,47000.000,52.00
472,47100.000,52.00
473,47200.000,52.00
474,47300.000,48.00
475,47400.000,48.00
476,47500.000,48.00
477,47600.000,48.00
478,47700.000,48.00
479,47800.000,44.00
480,47900.000,44.00
481,48000.000,40.00
482,48100.000,36.00
483,48200.000,36.00
484,48300.000,36.00
485,48400.000,32.00
486,48500.000,24.00
487,48600.000,28.00
488,48700.000,20.00
489,48800.000,20.00
490,48900.000,16.00
491,49000.000,16.00
492,49100.000,8.00
493,49200.000,8.00
494,49300.000,0.00
495,49400.000,0.00
496,49500.000,-4.00
497,49600.000,-8.00
498,49700.000,-8.00
499,49800.000,-12.00
500,49900.000,-16.00
501,50000.000,-20.00
502,50100.000,-20.00
503,50200.000,-24.00
504,50300.000,-28.00
505,50400.000,-32.00
506,50500.000,-32.00
507,50600.000,-36.00
508,50700.000,-36.00
509,50800.000,-40.00
510,50900.000,-44.00
511,51000.000,-44.00
512,51100.000,-44.00
513,51200.000,-48.00
514,51300.000,-48.00
515,51400.000,-48.00
516,51500.000,-48.00
517,51600.000,-52.00
518,51700.000,-52.00
519,51800.000,-52.00
520,51900.000,-52.00
521,52000.000,-52.00
522,52100.000,-52.00
523,52200.000,-52.00
524,52300.000,-48.00
525,52400.000,-48.00
526,52500.000,-44.00
527,52600.000,-44.00
528,52700.000,-44.00
529,52800.000,-40.00
530,52900.000,-40.00
531,53000.000,-40.00
532,53100.000,-36.00
533,53200.000,-36.00
534,53300.000,-28.00
535,53400.000,-28.00
536,53500.000,-28.00
537,53600.000,-24.00
538,53700.000,-20.00
539,53800.000,-16.00
540,53900.000,-12.00
541,54000.000,-12.00
542,54100.000,-8.00
543,54200.000,-4.00
544,54300.000,0.00
545,54400.000,0.00
546,54500.000,4.00
547,54600.000,4.00
548,54700.000,8.00
549,54800.000,12.00
550,54900.000,16.00
551,55000.000,16.00
552,55100.000,20.00
553,55200.000,24.00
554,55300.000,28.00
555,55400.000,32.00
556,55500.000,32.00
557,55600.000,32.00
558,55700.000,40.00
559,55800.000,36.00
560,55900.000,40.00
561,56000.000,44.00
562,56100.000,44.00
563,56200.000,44.00
564,56300.000,48.00
565,56400.000,48.00
566,56500.000,48.00
567,56600.000,48.00
568,56700.000,52.00
569,56800.000,52.00
570,56900.000,52.00
571,57000.000,48.00
572,57100.000,52.00
573,57200.000,48.00
574,57300.000,48.00
575,57400.000,48.00
576,57500.000,48.00
577,57600.000,44.00
578,57700.000,44.00
579,57800.000,44.00
580,57900.000,44.00
581,58000.000,40.00
582,58100.000,36.00
583,58200.000,36.00
584,58300.000,28.00
585,58400.000,32.00
586,58500.000,28.00
587,58600.000,28.00
588,58700.000,20.00
589,58800.000,20.00
590,58900.000,16.00
591,59000.000,20.00
592,59100.000,12.00
593,59200.000,8.00
594,59300.000,4.00
595,59400.000,0.00
596,59500.000,-4.00
597,59600.000,-4.00
598,59700.000,-8.00
599,59800.000,-12.00
600,59900.000,-12.00
601,60000.000,-20.00
602,60100.000,-24.00
603,60200.000,-24.00
604,60300.000,-28.00
605,60400.000,-32.00
606,60500.000,-28.00
607,60600.000,-36.00
608,60700.000,-40.00
609,60800.000,-40.00
610,60900.000,-40.00
611,61000.000,-40.00
612,61100.000,-44.00
613,61200.000,-48.00
614,61300.000,-48.00
615,61400.000,-48.00
616,61500.000,-52.00
617,61600.000,-52.00
618,61700.000,-52.00
619,61800.000,-52.00
620,61900.000,-52.00
621,62000.000,-52.00
622,62100.000,-52.00
623,62200.000,-48.00
624,62300.000,-48.00
625,62400.000,-44.00
626,62500.000,-48.00
627,62600.000,-44.00
628,62700.000,-44.00
629,62800.000,-40.00
630,62900.000,-40.00
631,63000.000,-36.00
632,63100.000,-36.00
633,63200.000,-32.00
634,63300.000,-28.00
635,63400.000,-28.00
636,63500.000,-24.00
637,63600.000,-24.00
638,63700.000,-20.00
639,63800.000,-20.00
640,63900.000,-12.00
641,64000.000,-12.00
642,64100.000,-12.00
643,64200.000,-8.00
644,64300.000,0.00
645,64400.000,0.00
646,64500.000,4.00
647,64600.000,8.00
648,64700.000,12.00
649,64800.000,12.00
650,64900.000,16.00
651,65000.000,16.00
652,65100.000,24.00
653,65200.000,28.00
654,65300.000,28.00
655,65400.000,28.00
656,65500.000,32.00
657,65600.000,40.00
658,65700.000,36.00
659,65800.000,40.00
660,65900.000,44.00
661,66000.000,44.00
662,66100.000,44.00
663,66200.000,48.00
664,66300.000,48.00
665,66400.000,52.00
666,66500.000,52.00
667,66600.000,52.00
668,66700.000,52.00
669,66800.000,52.00
670,66900.000,56.00
671,67000.000,56.00
672,67100.000,52.00
673,67200.000,56.00
674,67300.000,52.00
675,67400.000,52.00
676,67500.000,52.00
677,67600.000,52.00
678,67700.000,48.00
679,67800.000,48.00
680,67900.000,44.00
681,68000.000,44.00
682,68100.000,40.00
683,68200.000,36.00
684,68300.000,36.00
685,68400.000,32.00
686,68500.000,28.00
687,68600.000,24.00
688,68700.000,20.00
689,68800.000,20.00
690,68900.000,16.00
691,69000.000,12.00
692,69100.000,12.00
693,69200.000,8.00
694,69300.000,4.00
695,69400.000,0.00
696,69500.000,-4.00
697,69600.000,-8.00
698,69700.000,-8.00
699,69800.000,-12.00
700,69900.000,-16.00
701,70000.000,-20.00
702,70100.000,-20.00
703,70200.000,-24.00
704,70300.000,-24.00
705,70400.000,-32.00
706,70500.000,-32.00
707,70600.000,-32.00
708,70700.000,-36.00
709,70800.000,-40.00
710,70900.000,-40.00
711,71000.000,-44.00
712,71100.000,-44.00
713,71200.000,-44.00
714,71300.000,-48.00
715,71400.000,-44.00
716,71500.000,-48.00
717,71600.000,-52.00
718,71700.000,-48.00
719,71800.000,-52.00
720,71900.000,-52.00
721,72000.000,-52.00
722,72100.000,-48.00
723,72200.000,-48.00
724,72300.000,-48.00
725,72400.000,-48.00
726,72500.000,-48.00
727,72600.000,-44.00
728,72700.000,-44.00
729,72800.000,-40.00
730,72900.000,-40.00
731,73000.000,-36.00
732,73100.000,-36.00
733,73200.000,-32.00
734,73300.000,-32.00
735,73400.000,-32.00
736,73500.000,-24.00
737,73600.000,-20.00
738,73700.000,-20.00
739,73800.000,-16.00
740,73900.000,-12.00
741,74000.000,-8.00
742,74100.000,-8.00
743,74200.000,-4.00
744,74300.000,0.00
745,74400.000,0.00
746,74500.000,4.00
747,74600.000,8.00
748,74700.000,8.00
749,74800.000,16.00
750,74900.000,16.00
751,75000.000,20.00
752,75100.000,20.00
753,75200.000,28.00
754,75300.000,28.00
755,75400.000,28.00
756,75500.000,32.00
757,75600.000,36.00
758,75700.000,36.00
759,75800.000,40.00
760,75900.000,40.00
761,76000.000,44.00
762,76100.000,44.00
763,76200.000,44.00
764,76300.000,48.00
765,76400.000,48.00
766,76500.000,52.00
767,76600.000,48.00
768,76700.000,52.00
769,76800.000,52.00
770,76900.000,52.00
771,77000.000,52.00
772,77100.000,48.00
773,77200.000,48.00
774,77300.000,52.00
775,77400.000,48.00
776,77500.000,48.00
777,77600.000,44.00
778,77700.000,44.00
779,77800.000,44.00
780,77900.000,44.00
781,78000.000,40.00
782,78100.000,40.00
783,78200.000,32.00
784,78300.000,32.00
785,78400.000,28.00
786,78500.000,28.00
787,78600.000,28.00
788,78700.000,24.00
789,78800.000,16.00
790,78900.000,16.00
791,79000.000,16.00
792,79100.000,8.00
793,79200.000,4.00
794,79300.000,4.00
795,79400.000,0.00
796,79500.000,0.00
797,79600.000,-4.00
798,79700.000,-12.00
799,79800.000,-12.00
800,79900.000,-16.00
801,80000.000,-20.00
802,80100.000,-20.00
803,80200.000,-20.00
804,80300.000,-28.00
805,80400.000,-32.00
806,80500.000,-32.00
807,80600.000,-36.00
808,80700.000,-36.00
809,80800.000,-40.00
810,80900.000,-44.00
811,81000.000,-44.00
812,81100.000,-48.00
813,81200.000,-48.00
814,81300.000,-48.00
815,81400.000,-52.00
816,81500.000,-52.00
817,81600.000,-52.00
818,81700.000,-48.00
819,81800.000,-52.00
820,81900.000,-56.00
821,82000.000,-52.00
822,82100.000,-52.00
823,82200.000,-52.00
824,82300.000,-48.00
825,82400.000,-52.00
826,82500.000,-48.00
827,82600.000,-44.00
828,82700.000,-44.00
829,82800.000,-40.00
830,82900.000,-40.00
831,83000.000,-40.00
832,83100.000,-36.00
833,83200.000,-36.00
834,83300.000,-32.00
835,83400.000,-32.00
836,83500.000,-28.00
837,83600.000,-24.00
838,83700.000,-20.00
839,83800.000,-16.00
840,83900.000,-16.00
841,84000.000,-16.00
842,84100.000,-8.00
843,84200.000,-8.00
844,84300.000,-4.00
845,84400.000,0.00
846,84500.000,4.00
847,84600.000,4.00
848,84700.000,8.00
849,84800.000,12.00
850,84900.000,16.00
851,85000.000,20.00
852,85100.000,24.00
853,85200.000,24.00
854,85300.000,28.00
855,85400.000,36.00
856,85500.000,36.00
857,85600.000,40.00
858,85700.000,40.00
859,85800.000,36.00
860,85900.000,40.00
861,86000.000,40.00
862,86100.000,44.00
863,86200.000,44.00
864,86300.000,44.00
865,86400.000,48.00
866,86500.000,48.00
867,86600.000,52.00
868,86700.000,52.00
869,86800.000,52.00
870,86900.000,52.00
871,87000.000,52.00
872,87100.000,52.00
873,87200.000,52.00
874,87300.000,48.00
875,87400.000,48.00
876,87500.000,48.00
877,87600.000,48.00
878,87700.000,44.00
879,87800.000,44.00
880,87900.000,40.00
881,88000.000,40.00
882,88100.000,36.00
883,88200.000,40.00
884,88300.000,32.00
885,88400.000,28.00
886,88500.000,28.00
887,88600.000,24.00
888,88700.000,24.00
889,88800.000,20.00
890,88900.000,16.00
891,89000.000,12.00
892,89100.000,12.00
893,89200.000,4.00
894,89300.000,0.00
895,89400.000,0.00
896,89500.000,-4.00
897,89600.000,-8.00
898,89700.000,-12.00
899,89800.000,-12.00
900,89900.000,-16.00
901,90000.000,-20.00
902,90100.000,-20.00
903,90200.000,-24.00
904,90300.000,-28.00
905,90400.000,-28.00
906,90500.000,-32.00
907,90600.000,-32.00
908,90700.000,-40.00
909,90800.000,-40.00
910,90900.000,-44.00
911,91000.000,-48.00
912,91100.000,-44.00
913,91200.000,-44.00
914,91300.000,-52.00
915,91400.000,-48.00
916,91500.000,-48.00
917,91600.000,-52.00
918,91700.000,-48.00
919,91800.000,-52.00
920,91900.000,-52.00
921,92000.000,-48.00
922,92100.000,-52.00
923,92200.000,-48.00
924,92300.000,-48.00
925,92400.000,-48.00
926,92500.000,-44.00
927,92600.000,-44.00
928,92700.000,-40.00
929,92800.000,-44.00
930,92900.000,-36.00
931,93000.000,-40.00
932,93100.000,-36.00
933,93200.000,-32.00
934,93300.000,-28.00
935,93400.000,-28.00
936,93500.000,-24.00
937,93600.000,-20.00
938,93700.000,-20.00
939,93800.000,-16.00
940,93900.000,-16.00
941,94000.000,-8.00
942,94100.000,-12.00
943,94200.000,-8.00
944,94300.000,0.00
945,94400.000,0.00
946,94500.000,4.00
947,94600.000,8.00
948,94700.000,12.00
949,94800.000,16.00
950,94900.000,12.00
951,95000.000,20.00
952,95100.000,24.00
953,95200.000,24.00
954,95300.000,28.00
955,95400.000,32.00
956,95500.000,32.00
957,95600.000,36.00
958,95700.000,40.00
959,95800.000,40.00
960,95900.000,40.00
961,96000.000,44.00
962,96100.000,48.00
963,96200.000,44.00
964,96300.000,48.00
965,96400.000,52.00
966,96500.000,52.00
967,96600.000,52.00
968,96700.000,52.00
969,96800.000,48.00
970,96900.000,48.00
971,97000.000,52.00
972,97100.000,52.00
973,97200.000,52.00
974,97300.000,52.00
975,97400.000,52.00
976,97500.000,48.00
977,97600.000,48.00
978,97700.000,44.00
979,97800.000,44.00
980,97900.000,44.00
981,98000.000,40.00
982,98100.000,36.00
983,98200.000,36.00
984,98300.000,36.00
985,98400.000,28.00
986,98500.000,28.00
987,98600.000,20.00
988,98700.000,20.00
989,98800.000,20.00
990,98900.000,16.00
991,99000.000,12.00
992,99100.000,12.00
993,99200.000,8.00
994,99300.000,-4.00
995,99400.000,0.00
996,99500.000,-4.00
997,99600.000,-8.00
998,99700.000,-12.00
999,99800.000,-16.00
1000,99900.000,-20.00
